# GROND MANUAL ANALYSIS PIPELINE v1.8
# GROND r-band observation of SWIFT-425151
# Central poining Ra: 315.29772, Dec: -51.09674
# PSF photometry used for calibration
# Catalog used for astrometry: USNO
# Catalog used for calibration: USNO
# OB type: 20m4td
# Observation run ID: 9
# Observation block sequence number: 3
# Midtime of the observation in MJD: 55378.299989
# Midtime of the observation: 2010.498087
# Midtime of the observation: July 1, 2010, 07:11:59.08 UTC
# Start of the observation in MJD: 55378.289990
# Start of the observation: 2010.498060
# Start of the observation: July 1, 2010, 06:57:35.10 UTC
# Error of the OB: 863.97 s
# Total integration time of the image: 1500.76 s, 25.01 min
# Integration of the individual images: 375.22 s
# Midtime of the TDP in MJD: 55378.292161
# Error of the TDP: 187.61 s
# Number of images combined: 4
# Correction from Vega to AB magnitudes: 0.178
# Aperture size is 5.20 pixel, which is 0.82"
# 3.0s limiting magnitude using zeropoint 25.203: 24.708
# 3.0s limiting magnitude against objects match proximity 0.6": 24.938
# 3.0s limiting AB magnitude against objects match proximity 0.6": 25.116
# 4.5s limiting magnitude using zeropoint 25.203: 24.268
# 4.5s limiting magnitude against objects match proximity 0.6": 24.498
# 4.5s limiting AB magnitude against objects match proximity 0.6": 24.676
# Threshold for photometry: 4.5 sigma
# Astrometric solution accuracy in RA 0.220" and DEC 0.219"
# Mean fwhm of stars: 5.200 px, 0.82"
# Mean airmass: 1.078
# Extinction coefficient: 0.09
# Calibration against xyxyobjects used 19 stars with red. chi2 = 0.73
# Calibration against objects match proximity 0.6" used 29 stars with red. chi2 = 12.18
# Zeropoint against objects match proximity 0.6" for airmass 1.078: 25.433 +/- 0.194
# Zeropoint against objects match proximity 0.6" for airmass 1: 25.440 +/- 0.194
# AB zeropoint calibrated against objects match proximity 0.6" for airmass 1: 25.618 +/- 0.194
# Calibration rms scatter against objects match proximity 0.6":  1.029 mag
# Output format new 
# Kron magnitude correction to iraf: 0.310 +/- 0.002 
# Columns: Ra [deg], Dec [deg],
# PSF magnitude for zeropoint 25.203, PSF error,
# APP magnitude for zeropoint 25.203, APP error,
# Kron magnitude for zeropoint 25.203, Kron error,
# Zero point offset using astrometric stars,
# Zero point offset using all objects with proximity 0.6",
# Standard deviation of zero point offset using astrometric stars,
# Standard deviation of zero point offset using objects with proximity 0.6",
# Calibrated magnitude against catalog objects with proximity 0.6",
# Error calibrated magnitude
# Elongation, Half Light Radius, Star Flag 
315.23780 -51.12407 22.146 0.042 22.125 0.039 22.095 0.049 -0.125 0.230 0.059 0.194 22.376 0.199 1.039 3.400 0.91 
315.23885 -51.10893 20.752 0.013 20.751 0.012 20.841 0.014 -0.125 0.230 0.059 0.194 20.982 0.195 1.048 3.075 0.98 
315.24362 -51.12995 20.525 0.014 20.529 0.010 20.598 0.011 -0.125 0.230 0.059 0.194 20.755 0.195 1.073 3.061 0.98 
315.24623 -51.09408 21.408 0.022 21.399 0.020 21.495 0.024 -0.125 0.230 0.059 0.194 21.638 0.196 1.075 3.049 0.95 
315.24759 -51.07596 21.879 0.032 21.888 0.030 22.013 0.036 -0.125 0.230 0.059 0.194 22.109 0.197 1.132 2.898 0.97 
315.25200 -51.06819 20.697 0.012 20.691 0.011 20.771 0.013 -0.125 0.230 0.059 0.194 20.927 0.195 1.070 3.109 0.98 
315.25310 -51.07016 23.972 0.165 23.874 0.174 INDEF  INDEF -0.125 0.230 0.059 0.194 24.202 0.255 INDEF INDEF INDEF 
315.25355 -51.06619 19.446 0.004 19.448 0.004 19.483 0.005 -0.125 0.230 0.059 0.194 19.676 0.194 1.033 3.177 0.98 
315.25726 -51.08778 19.538 0.005 19.539 0.005 19.575 0.005 -0.125 0.230 0.059 0.194 19.768 0.195 1.007 3.172 0.98 
315.25800 -51.09672 22.021 0.034 22.009 0.033 22.121 0.039 -0.125 0.230 0.059 0.194 22.251 0.197 1.237 3.083 0.88 
315.25995 -51.07989 18.925 0.004 18.925 0.003 18.948 0.003 -0.125 0.230 0.059 0.194 19.155 0.194 1.035 3.206 0.98 
315.26229 -51.10997 20.562 0.011 20.566 0.011 20.630 0.012 -0.125 0.230 0.059 0.194 20.792 0.195 1.016 3.067 0.98 
315.26423 -51.09594 22.385 0.051 22.383 0.045 22.625 0.056 -0.125 0.230 0.059 0.194 22.615 0.201 1.345 2.730 0.94 
315.26471 -51.07553 20.608 0.011 20.612 0.011 20.697 0.012 -0.125 0.230 0.059 0.194 20.838 0.195 1.085 3.062 0.98 
315.26512 -51.13397 19.112 0.004 19.116 0.004 19.150 0.004 -0.125 0.230 0.059 0.194 19.342 0.194 1.030 3.161 0.98 
315.26528 -51.06038 21.722 0.024 21.721 0.029 21.739 0.032 -0.125 0.230 0.059 0.194 21.952 0.196 1.049 3.197 0.90 
315.26560 -51.08123 21.250 0.050 21.168 0.016 20.479 0.020 -0.125 0.230 0.059 0.194 21.480 0.201 1.474 6.233 0.02 
315.26667 -51.05876 19.671 0.052 19.611 0.006 18.631 0.006 -0.125 0.230 0.059 0.194 19.901 0.201 1.426 8.229 0.03 
315.27012 -51.06785 19.495 0.005 19.494 0.004 19.530 0.005 -0.125 0.230 0.059 0.194 19.725 0.195 1.039 3.151 0.98 
315.27182 -51.12772 16.582 0.002 16.584 0.001 16.577 0.001 -0.125 0.230 0.059 0.194 16.812 0.194 1.010 3.280 0.99 
315.27224 -51.12227 20.359 0.009 20.361 0.009 20.379 0.010 -0.125 0.230 0.059 0.194 20.589 0.195 1.061 3.216 0.98 
315.27288 -51.12601 21.311 0.018 21.315 0.020 21.409 0.021 -0.125 0.230 0.059 0.194 21.541 0.195 1.112 2.959 0.98 
315.27311 -51.12440 19.907 0.006 19.910 0.006 19.948 0.007 -0.125 0.230 0.059 0.194 20.137 0.195 1.020 3.161 0.98 
315.27347 -51.07706 20.661 0.042 20.594 0.011 20.047 0.012 -0.125 0.230 0.059 0.194 20.891 0.199 1.526 5.677 0.03 
315.27395 -51.10096 20.906 0.013 20.907 0.013 20.979 0.016 -0.125 0.230 0.059 0.194 21.136 0.195 1.091 3.095 0.98 
315.27425 -51.08934 19.586 0.004 19.587 0.005 19.634 0.005 -0.125 0.230 0.059 0.194 19.816 0.194 1.042 3.147 0.98 
315.27704 -51.08499 18.099 0.002 18.099 0.002 18.109 0.002 -0.125 0.230 0.059 0.194 18.329 0.194 1.035 3.238 0.98 
315.28038 -51.12698 20.706 0.013 20.708 0.012 20.782 0.013 -0.125 0.230 0.059 0.194 20.936 0.195 1.053 3.076 0.98 
315.28129 -51.08321 20.627 0.014 20.631 0.011 20.689 0.012 -0.125 0.230 0.059 0.194 20.857 0.195 1.024 3.095 0.98 
315.28457 -51.09825 19.864 0.006 19.863 0.006 19.903 0.007 -0.125 0.230 0.059 0.194 20.094 0.195 1.039 3.185 0.98 
315.28462 -51.11286 21.129 0.017 21.134 0.016 21.249 0.019 -0.125 0.230 0.059 0.194 21.359 0.195 1.050 2.958 0.98 
315.28479 -51.11726 21.512 0.022 21.485 0.021 21.484 0.029 -0.125 0.230 0.059 0.194 21.742 0.196 1.108 3.331 0.89 
315.28527 -51.11670 21.312 0.039 21.254 0.017 21.023 0.022 -0.125 0.230 0.059 0.194 21.542 0.198 1.080 4.304 0.09 
315.28878 -51.09041 21.139 0.014 21.139 0.016 21.238 0.019 -0.125 0.230 0.059 0.194 21.369 0.195 1.082 3.005 0.98 
315.28903 -51.11308 21.456 0.020 21.461 0.020 21.554 0.024 -0.125 0.230 0.059 0.194 21.686 0.196 1.061 3.030 0.97 
315.28978 -51.10619 18.751 0.003 18.753 0.003 18.757 0.003 -0.125 0.230 0.059 0.194 18.981 0.194 1.059 3.246 0.98 
315.29144 -51.08903 21.727 0.029 21.735 0.026 21.890 0.030 -0.125 0.230 0.059 0.194 21.957 0.197 1.107 2.869 0.98 
315.29281 -51.06428 17.708 0.002 17.708 0.002 17.709 0.001 -0.125 0.230 0.059 0.194 17.938 0.194 1.056 3.273 0.98 
315.29465 -51.09011 19.241 0.004 19.240 0.004 19.236 0.004 -0.125 0.230 0.059 0.194 19.471 0.194 1.135 3.282 0.98 
315.29633 -51.08935 21.333 0.018 21.330 0.020 21.441 0.022 -0.125 0.230 0.059 0.194 21.563 0.195 1.073 3.002 0.98 
315.30168 -51.12797 21.650 0.044 21.596 0.024 21.297 0.030 -0.125 0.230 0.059 0.194 21.880 0.199 1.084 4.491 0.05 
315.30213 -51.07709 22.021 0.048 21.944 0.031 21.688 0.041 -0.125 0.230 0.059 0.194 22.251 0.200 1.122 4.492 0.17 
315.30296 -51.07291 22.118 0.040 22.137 0.035 22.255 0.048 -0.125 0.230 0.059 0.194 22.348 0.198 1.067 2.915 0.93 
315.30452 -51.10619 21.773 0.037 21.739 0.027 21.825 0.032 -0.125 0.230 0.059 0.194 22.003 0.198 1.162 3.305 0.36 
315.30597 -51.08599 21.220 0.017 21.221 0.016 21.329 0.021 -0.125 0.230 0.059 0.194 21.450 0.195 1.109 3.006 0.97 
315.30606 -51.12432 20.506 0.060 20.411 0.010 19.819 0.009 -0.125 0.230 0.059 0.194 20.736 0.203 1.697 5.832 0.03 
315.30905 -51.11427 20.577 0.010 20.582 0.011 20.660 0.012 -0.125 0.230 0.059 0.194 20.807 0.195 1.042 3.040 0.98 
315.30940 -51.10145 20.506 0.011 20.505 0.010 20.585 0.011 -0.125 0.230 0.059 0.194 20.736 0.195 1.105 3.044 0.98 
315.30994 -51.09054 19.326 0.004 19.326 0.004 19.365 0.004 -0.125 0.230 0.059 0.194 19.556 0.194 1.039 3.159 0.98 
315.31214 -51.12050 20.962 0.043 20.899 0.013 20.480 0.016 -0.125 0.230 0.059 0.194 21.192 0.199 1.107 5.080 0.03 
315.31300 -51.13042 21.454 0.018 21.453 0.020 21.519 0.024 -0.125 0.230 0.059 0.194 21.684 0.195 1.126 3.105 0.98 
315.31459 -51.08683 22.036 0.030 22.041 0.033 22.222 0.041 -0.125 0.230 0.059 0.194 22.266 0.197 1.148 2.780 0.97 
315.31617 -51.10486 18.248 0.002 18.247 0.002 18.264 0.002 -0.125 0.230 0.059 0.194 18.478 0.194 1.043 3.215 0.98 
315.31738 -51.13432 21.441 0.022 21.432 0.020 21.496 0.025 -0.125 0.230 0.059 0.194 21.671 0.196 1.062 3.210 0.90 
315.32021 -51.06303 18.861 0.004 18.862 0.003 18.898 0.003 -0.125 0.230 0.059 0.194 19.091 0.194 1.046 3.165 0.98 
315.32093 -51.06898 21.035 0.014 21.038 0.015 21.136 0.017 -0.125 0.230 0.059 0.194 21.265 0.195 1.163 3.029 0.98 
315.32329 -51.07544 20.336 0.009 20.333 0.009 20.372 0.010 -0.125 0.230 0.059 0.194 20.566 0.195 1.037 3.170 0.98 
315.32341 -51.10672 20.838 0.045 20.779 0.012 20.303 0.014 -0.125 0.230 0.059 0.194 21.068 0.200 1.269 5.352 0.03 
315.32494 -51.06068 20.368 0.009 20.371 0.009 20.444 0.010 -0.125 0.230 0.059 0.194 20.598 0.195 1.041 3.117 0.98 
315.32511 -51.06316 20.034 0.007 20.032 0.006 20.092 0.008 -0.125 0.230 0.059 0.194 20.264 0.195 1.013 3.102 0.98 
315.32583 -51.06625 21.093 0.015 21.097 0.015 21.198 0.018 -0.125 0.230 0.059 0.194 21.323 0.195 1.032 3.000 0.98 
315.32605 -51.07155 20.937 0.014 20.939 0.013 21.014 0.016 -0.125 0.230 0.059 0.194 21.167 0.195 1.085 3.066 0.98 
315.32958 -51.08642 21.182 0.015 21.183 0.016 21.258 0.019 -0.125 0.230 0.059 0.194 21.412 0.195 1.050 3.063 0.97 
315.32963 -51.12208 20.824 0.040 20.768 0.012 20.131 0.014 -0.125 0.230 0.059 0.194 21.054 0.198 1.159 6.206 0.04 
315.33070 -51.10105 20.402 0.009 20.403 0.010 20.413 0.011 -0.125 0.230 0.059 0.194 20.632 0.195 1.071 3.239 0.98 
315.33237 -51.07660 21.096 0.016 21.099 0.015 21.209 0.019 -0.125 0.230 0.059 0.194 21.326 0.195 1.074 3.010 0.98 
315.33249 -51.07894 20.452 0.011 20.448 0.010 20.524 0.011 -0.125 0.230 0.059 0.194 20.682 0.195 1.097 3.090 0.98 
315.33281 -51.08423 20.974 0.013 20.974 0.014 21.034 0.017 -0.125 0.230 0.059 0.194 21.204 0.195 1.142 3.132 0.97 
315.33508 -51.06088 20.481 0.010 20.478 0.010 20.553 0.011 -0.125 0.230 0.059 0.194 20.711 0.195 1.182 3.104 0.98 
315.33668 -51.09745 19.634 0.005 19.634 0.005 19.678 0.005 -0.125 0.230 0.059 0.194 19.864 0.195 1.058 3.144 0.98 
315.33816 -51.08061 22.258 0.040 22.254 0.039 22.456 0.050 -0.125 0.230 0.059 0.194 22.488 0.198 1.116 2.814 0.94 
315.34070 -51.06129 20.114 0.007 20.114 0.007 20.169 0.008 -0.125 0.230 0.059 0.194 20.344 0.195 1.058 3.135 0.98 
315.34091 -51.11356 21.021 0.014 21.012 0.014 21.044 0.017 -0.125 0.230 0.059 0.194 21.251 0.195 1.175 3.225 0.95 
315.34502 -51.13423 19.699 0.005 19.698 0.005 19.734 0.006 -0.125 0.230 0.059 0.194 19.929 0.195 1.053 3.176 0.98 
315.34909 -51.08797 20.204 0.006 20.206 0.007 20.264 0.009 -0.125 0.230 0.059 0.194 20.434 0.195 1.073 3.106 0.98 
315.34924 -51.07251 19.939 0.007 19.941 0.006 19.995 0.007 -0.125 0.230 0.059 0.194 20.169 0.195 1.067 3.126 0.98 
315.34977 -51.06571 21.532 0.025 21.536 0.021 21.640 0.026 -0.125 0.230 0.059 0.194 21.762 0.196 1.067 2.924 0.98 
315.35171 -51.13193 22.589 0.051 22.566 0.051 22.865 0.063 -0.125 0.230 0.059 0.194 22.819 0.201 1.095 2.738 0.86 
315.35356 -51.11689 20.836 0.013 20.836 0.013 20.884 0.015 -0.125 0.230 0.059 0.194 21.066 0.195 1.060 3.171 0.98 
315.35610 -51.10567 25.015 0.463 INDEF  INDEF INDEF  INDEF -0.125 0.230 0.059 0.194 25.245 0.502 INDEF INDEF INDEF 
315.35726 -51.11884 16.380 0.002 16.380 0.001 16.372 0.001 -0.125 0.230 0.059 0.194 16.610 0.194 1.004 3.286 0.99 
315.36151 -51.11473 22.268 0.040 22.268 0.042 22.391 0.047 -0.125 0.230 0.059 0.194 22.498 0.198 1.190 2.970 0.75 
315.36154 -51.09241 21.958 0.048 21.891 0.030 21.855 0.041 -0.125 0.230 0.059 0.194 22.188 0.200 1.481 3.795 0.16 
